File: djangobackend/media/ExperiData/2020020836/XRD/211118-001-001-XRD005.csv
Angle,Intensity
5.00657,750
5.16413,756
5.32169,748
5.47926,819
5.63682,801
5.79438,735
5.95195,691
6.10951,710
6.26707,743
6.42464,754
6.5822,722
6.73976,718
6.89733,666
7.05489,686
7.21245,685
7.37002,699
7.52758,704
7.68514,704
7.84271,638
8.00027,702
8.15783,682
8.3154,710
8.47296,702
8.63052,635
8.78809,630
8.94565,684
9.10321,686
9.26078,644
9.41834,634
9.5759,634
9.73347,571
9.89103,604
10.0486,637
10.2062,616
10.3637,597
10.5213,639
10.6788,610
10.8364,566
10.994,635
11.1515,641
11.3091,625
11.4667,632
11.6242,607
11.7818,602
11.9394,631
12.0969,597
12.2545,602
12.412,578
12.5696,590
12.7272,607
12.8847,542
13.0423,552
13.1999,556
13.3574,596
13.515,658
13.6726,924
13.8301,1670
13.9877,7303
14.1452,1029
14.3028,666
14.4604,648
14.6179,579
14.7755,576
14.9331,573
15.0906,539
15.2482,588
15.4057,519
15.5633,561
15.7209,522
15.8784,594
16.036,521
16.1936,546
16.3511,541
16.5087,568
16.6663,491
16.8238,481
16.9814,519
17.1389,570
17.2965,472
17.4541,497
17.6116,498
17.7692,502
17.9268,486
18.0843,476
18.2419,440
18.3995,476
18.557,462
18.7146,452
18.8721,478
19.0297,444
19.1873,507
19.3448,466
19.5024,529
19.66,524
19.8175,689
19.9751,540
20.1327,426
20.2902,426
20.4478,458
20.6053,436
20.7629,459
20.9205,451
21.078,442
21.2356,439
21.3932,443
21.5507,434
21.7083,425
21.8658,451
22.0234,472
22.181,448
22.3385,427
22.4961,430
22.6537,433
22.8112,422
22.9688,427
23.1264,426
23.2839,447
23.4415,420
23.599,444
23.7566,470
23.9142,449
24.0717,438
24.2293,565
24.3869,2143
24.5444,654
24.702,511
24.8596,415
25.0171,406
25.1747,410
25.3322,426
25.4898,462
25.6474,437
25.8049,381
25.9625,439
26.1201,427
26.2776,496
26.4352,713
26.5927,861
26.7503,487
26.9079,428
27.0654,390
27.223,374
27.3806,439
27.5381,444
27.6957,403
27.8533,437
28.0108,677
28.1684,3608
28.3259,1308
28.4835,489
28.6411,463
28.7986,425
28.9562,391
29.1138,426
29.2713,384
29.4289,403
29.5865,380
29.744,384
29.9016,365
30.0591,371
30.2167,331
30.3743,373
30.5318,387
30.6894,369
30.847,362
31.0045,354
31.1621,346
31.3197,358
31.4772,440
31.6348,1299
31.7923,402
31.9499,356
32.1075,284
32.265,331
32.4226,364
32.5802,325
32.7377,333
32.8953,318
33.0528,346
33.2104,334
33.368,310
33.5255,377
33.6831,453
33.8407,430
33.9982,332
34.1558,303
34.3134,296
34.4709,306
34.6285,370
34.786,538
34.9436,336
35.1012,304
35.2587,290
35.4163,298
35.5739,249
35.7314,289
35.889,283
36.0466,291
36.2041,272
36.3617,287
36.5192,234
36.6768,285
36.8344,307
36.9919,264
37.1495,295
37.3071,270
37.4646,327
37.6222,384
37.7798,817
37.9373,603
38.0949,324
38.2524,246
38.41,286
38.5676,247
38.7251,238
38.8827,289
39.0403,256
39.1978,228
39.3554,236
39.5129,279
39.6705,244
39.8281,270
39.9856,256
40.1432,286
40.3008,778
40.4583,465
40.6159,260
40.7735,247
40.931,239
41.0886,218
41.2461,234
41.4037,237
41.5613,226
41.7188,215
41.8764,265
42.034,257
42.1915,245
42.3491,267
42.5067,233
42.6642,284
42.8218,709
42.9793,640
43.1369,297
43.2945,230
43.452,212
43.6096,228
43.7672,229
43.9247,226
44.0823,223
44.2398,203
44.3974,209
44.555,207
44.7125,234
44.8701,206
45.0277,211
45.1852,203
45.3428,226
45.5004,226
45.6579,200
45.8155,214
45.973,205
46.1306,216
46.2882,168
46.4457,212
46.6033,217
46.7609,225
46.9184,222
47.076,205
47.2336,209
47.3911,206
47.5487,193
47.7062,230
47.8638,235
48.0214,182
48.1789,196
48.3365,209
48.4941,189
48.6516,181
48.8092,211
48.9668,189
49.1243,219
49.2819,183
49.4394,167
49.597,245
49.7546,258
49.9121,668
49.9909,587